* FRD data written by MATAA on 20-Dec-2018 09:12:28
* Impedance, FaitalPRO 12PR320 in Monkey Coffin prototype box 20181219
10.000000	NA	NA
10.046189	NA	NA
10.092591	6.202970	22.214831
10.139207	6.211361	22.313172
10.186039	6.219790	22.411966
10.233087	6.228258	22.511217
10.280352	6.235884	22.614876
10.327836	6.242778	22.722445
10.375539	6.249705	22.830511
10.423462	6.256664	22.939075
10.471607	6.266428	23.050122
10.519974	6.276587	23.161931
10.568565	6.286792	23.274256
10.617380	6.296108	23.380731
10.666420	6.303293	23.472914
10.715687	6.310511	23.565523
10.765181	6.317763	23.658560
10.814904	6.324797	23.772962
10.864857	6.331790	23.894053
10.915040	6.338816	24.015704
10.965456	6.346717	24.138492
11.016104	6.356620	24.263187
11.066986	6.366569	24.388457
11.118103	6.376563	24.514307
11.169456	6.389111	24.623865
11.221046	6.402048	24.731699
11.272875	6.415044	24.840031
11.324943	6.425594	24.945047
11.377251	6.433862	25.047004
11.429802	6.442170	25.149432
11.482594	6.451448	25.254890
11.535631	6.464372	25.370713
11.588913	6.477355	25.487071
11.642441	6.490399	25.603967
11.696216	6.498948	25.715270
11.750239	6.507260	25.826714
11.804512	6.515610	25.938673
11.859035	6.525743	26.064873
11.913811	6.536577	26.196799
11.968839	6.547461	26.329336
12.024122	6.557441	26.473650
12.079660	6.566715	26.627430
12.135454	6.576032	26.781920
12.191506	6.588994	26.906602
12.247817	6.606661	26.992514
12.304389	6.624410	27.078823
12.361221	6.639861	27.190129
12.418316	6.651130	27.345908
12.475675	6.662451	27.502406
12.533298	6.674430	27.652236
12.591188	6.687726	27.787323
12.649345	6.701084	27.923033
12.707771	6.713653	28.057323
12.766467	6.724557	28.188087
12.825433	6.735512	28.319455
12.884672	6.749152	28.451677
12.944185	6.767190	28.584919
13.003973	6.785310	28.718776
13.064036	6.802190	28.862209
13.124378	6.817624	29.016599
13.184998	6.833129	29.171703
13.245897	6.849286	29.316114
13.307079	6.865919	29.453298
13.368542	6.882630	29.591115
13.430290	6.899827	29.732271
13.492323	6.917237	29.874959
13.554642	6.934727	30.018307
13.617249	6.953580	30.166750
13.680146	6.972580	30.316089
13.743333	6.991770	30.464906
13.806811	7.011483	30.609242
13.870583	7.031287	30.754245
13.934650	7.050717	30.896022
13.999012	7.069690	31.033886
14.063672	7.088750	31.172386
14.128630	7.109073	31.314153
14.193889	7.129851	31.457382
14.259449	7.150729	31.603903
14.325311	7.171733	31.774196
14.391478	7.192835	31.945276
14.457951	7.215860	32.102294
14.524730	7.241038	32.243387
14.591818	7.266332	32.385133
14.659216	7.289336	32.546463
14.726925	7.312096	32.711293
14.794947	7.335329	32.876263
14.863283	7.359510	33.040577
14.931935	7.383802	33.205649
15.000903	7.410216	33.368441
15.070191	7.437363	33.531057
15.139798	7.464713	33.699771
15.209727	7.492408	33.884651
15.279979	7.520232	34.070385
15.350555	7.550820	34.227933
15.421457	7.582301	34.377914
15.492687	7.613250	34.537346
15.564246	7.642939	34.715645
15.636135	7.672765	34.894768
15.708357	7.704457	35.078534
15.780912	7.736486	35.263566
15.853802	7.769692	35.448297
15.927028	7.804068	35.632741
16.000593	7.838799	35.816820
16.074498	7.874985	35.993745
16.148744	7.911337	36.171487
16.223333	7.948767	36.341288
16.298267	7.986618	36.509484
16.373547	8.025522	36.689908
16.449174	8.065618	36.884363
16.525151	8.106220	37.075630
16.601478	8.148594	37.247627
16.678159	8.191165	37.420418
16.755193	8.235440	37.628365
16.832583	8.280094	37.841246
16.910331	8.324157	38.030195
16.988437	8.367989	38.206441
17.066905	8.414525	38.395478
17.145735	8.464706	38.601823
17.224929	8.515454	38.798398
17.304489	8.567635	38.957558
17.384416	8.620090	39.117942
17.464713	8.673628	39.291452
17.545380	8.727413	39.465762
17.626420	8.788838	39.680105
17.707834	8.851567	39.900858
17.789624	8.914186	40.088250
17.871792	8.976953	40.264455
17.954340	9.042974	40.454243
18.037269	9.111092	40.652626
18.120581	9.180926	40.837252
18.204278	9.252342	41.009535
18.288361	9.326533	41.190988
18.372833	9.404055	41.383520
18.457694	9.483969	41.572575
18.542948	9.567394	41.755761
18.628596	9.652278	41.942460
18.714639	9.739500	42.134856
18.801080	9.828249	42.329962
18.887919	9.919619	42.529555
18.975160	10.013068	42.709495
19.062804	10.110215	42.849752
19.150853	10.209533	42.993199
19.239309	10.312440	43.141929
19.328173	10.423434	43.295968
19.417447	10.546791	43.457911
19.507134	10.671731	43.634412
19.597235	10.798512	43.828959
19.687752	10.927259	43.968936
19.778687	11.057898	44.057529
19.870043	11.198696	44.166916
19.961820	11.346407	44.290169
20.054021	11.503538	44.410310
20.146648	11.664982	44.529495
20.239703	11.833908	44.643993
20.333188	12.004992	44.757951
20.427104	12.192186	44.804409
20.521454	12.381994	44.853696
20.616241	12.581712	44.938703
20.711464	12.790466	44.990480
20.807128	13.020118	44.959899
20.903234	13.254120	44.920466
20.999783	13.492863	44.871156
21.096779	13.749297	44.817236
21.194222	14.014993	44.760934
21.292115	14.310410	44.654981
21.390461	14.610289	44.541208
21.489261	14.907393	44.419061
21.588517	15.223478	44.231803
21.688232	15.572621	43.927854
21.788407	15.947599	43.611284
21.889045	16.339482	43.286225
21.990148	16.761225	42.873138
22.091718	17.194203	42.440113
22.193757	17.656808	41.971516
22.296267	18.155901	41.356323
22.399251	18.696306	40.574281
22.502710	19.222429	39.777758
22.606647	19.757230	38.949752
22.711065	20.388992	37.905234
22.815964	21.040307	36.785735
22.921348	21.715719	35.572122
23.027219	22.412116	34.189548
23.133579	23.110258	32.681889
23.240430	23.777401	30.750008
23.347775	24.544448	28.749425
23.455615	25.401773	26.686053
23.563954	26.067979	24.446396
23.672793	26.670880	22.027585
23.782135	27.170739	19.260769
23.891981	27.814796	16.358521
24.002336	28.455564	13.322389
24.113199	28.741325	9.838619
24.224575	28.988066	6.331212
24.336466	29.195527	2.802943
24.448873	28.933373	-0.704963
24.561799	28.662231	-4.246162
24.675247	28.381333	-7.822404
24.789219	27.756429	-11.195179
24.903717	27.052336	-14.553231
25.018744	26.267807	-17.902909
25.134303	25.336522	-20.675406
25.250395	24.381056	-23.215572
25.367024	23.412990	-25.496649
25.484191	22.488709	-27.585272
25.601899	21.540326	-29.579972
25.720151	20.556028	-31.473289
25.838949	19.711634	-32.905519
25.958296	18.853034	-34.199362
26.078194	17.982747	-35.350739
26.198646	17.254647	-36.096480
26.319655	16.541293	-36.880316
26.441222	15.842011	-37.619438
26.563351	15.166209	-38.032693
26.686043	14.565889	-38.364348
26.809303	14.012037	-38.553239
26.933132	13.501353	-38.515636
27.057533	13.008239	-38.558986
27.182508	12.533670	-38.466139
27.308061	12.084423	-38.259459
27.434193	11.693419	-38.094641
27.560908	11.339181	-37.782463
27.688209	10.991138	-37.447016
27.816097	10.638914	-37.137149
27.944576	10.333060	-36.762305
28.073649	10.036786	-36.197742
28.203318	9.752705	-35.539402
28.333585	9.483846	-34.866074
28.464455	9.237560	-34.396487
28.595929	9.001963	-33.743927
28.728010	8.793222	-33.024053
28.860701	8.623281	-32.316863
28.994005	8.469401	-31.362226
29.127924	8.302815	-30.810209
29.262463	8.119706	-30.198717
29.397622	7.936489	-29.358394
29.533406	7.824220	-28.508466
29.669818	7.663712	-27.445858
29.806859	7.532293	-26.631204
29.944533	7.418769	-25.900875
30.082843	7.299952	-25.006497
30.221792	7.199452	-24.064140
30.361383	7.092346	-23.318530
30.501618	7.004004	-22.338284
30.642502	6.924285	-21.281314
30.784035	6.839893	-20.418218
30.926223	6.779445	-19.620370
31.069068	6.693528	-18.803572
31.212572	6.630335	-18.012676
31.356739	6.572151	-17.265816
31.501572	6.506986	-16.490887
31.647074	6.441825	-15.560241
31.793247	6.391876	-14.629377
31.940097	6.339985	-13.783625
32.087624	6.288846	-12.884117
32.235833	6.247220	-11.982786
32.384726	6.210446	-11.146634
32.534307	6.171322	-10.351321
32.684579	6.142231	-9.422824
32.835545	6.115367	-8.606550
32.987208	6.085771	-7.785646
33.139572	6.061883	-6.977224
33.292640	6.042441	-6.194374
33.446414	6.023758	-5.394558
33.600899	6.004936	-4.593196
33.756098	5.987648	-3.831466
33.912013	5.971283	-3.016823
34.068648	5.956493	-2.232753
34.226007	5.946442	-1.450366
34.384093	5.937196	-0.676544
34.542909	5.930989	0.066516
34.702458	5.923893	0.818678
34.862745	5.917910	1.566008
35.023771	5.914056	2.291151
35.185542	5.912093	2.998432
35.348059	5.911818	3.712979
35.511328	5.912714	4.438639
35.675350	5.914316	5.141360
35.840130	5.916330	5.828794
36.005671	5.919999	6.502963
36.171977	5.925578	7.172912
36.339051	5.933254	7.842911
36.506897	5.940743	8.518905
36.675518	5.948306	9.170711
36.844917	5.957273	9.809385
37.015099	5.968517	10.444003
37.186068	5.982178	11.067211
37.357825	5.993363	11.735178
37.530377	6.004524	12.372027
37.703725	6.019008	12.979757
37.877874	6.036781	13.559954
38.052827	6.050203	14.170139
38.228588	6.065374	14.706887
38.405161	6.087337	15.380348
38.582550	6.095542	15.975803
38.760758	6.122595	16.514927
38.939789	6.139259	17.147175
39.119647	6.164862	17.679639
39.300336	6.179329	18.306639
39.481859	6.207276	18.896481
39.664221	6.225556	19.360582
39.847425	6.243106	19.958201
40.031476	6.283604	20.495005
40.216376	6.297939	20.925622
40.402131	6.334752	21.571370
40.588743	6.369631	22.031444
40.776218	6.380002	22.575914
40.964558	6.403933	23.249140
41.153768	6.448708	23.755283
41.343852	6.476123	24.183599
41.534814	6.498541	24.637867
41.726659	6.524223	25.269778
41.919389	6.567407	25.883729
42.113009	6.609439	26.259983
42.307524	6.643975	26.667764
42.502937	6.680786	27.159798
42.699253	6.710841	27.717127
42.896476	6.739011	28.212366
43.094609	6.782763	28.713965
43.293658	6.833760	29.164399
43.493626	6.887382	29.721902
43.694518	6.935179	30.229026
43.896337	6.969442	30.697578
44.099089	7.009761	31.145573
44.302777	7.049894	31.545257
44.507407	7.101872	31.914708
44.712981	7.157490	32.349006
44.919504	7.207423	32.746995
45.126982	7.245868	33.140791
45.335418	7.282854	33.594368
45.544817	7.309291	34.128327
45.755183	7.365386	34.569161
45.966520	7.411791	35.041917
46.178834	7.463749	35.500642
46.392128	7.519208	35.950813
46.606408	7.590766	36.475024
46.821677	7.646415	36.881908
47.037941	7.711023	37.346023
47.255203	7.782493	37.845763
47.473469	7.842607	38.358236
47.692743	7.912562	38.820808
47.913030	7.980594	39.283423
48.134334	8.045159	39.706202
48.356661	8.123135	40.067461
48.580014	8.194373	40.339126
48.804399	8.267097	40.649119
49.029821	8.332207	41.150720
49.256284	8.395152	41.571889
49.483792	8.479922	42.042328
49.712352	8.566074	42.467999
49.941967	8.650879	43.029671
50.172643	8.740491	43.495795
50.404384	8.818727	43.964293
50.637196	8.924494	44.382308
50.871083	9.037713	44.685114
51.106050	9.166577	45.053648
51.342102	9.286603	45.505505
51.579245	9.394474	45.816853
51.817483	9.495034	45.963373
52.056822	9.575171	46.471563
52.297266	9.684125	46.987975
52.538821	9.813401	47.326778
52.781491	9.949774	47.721187
53.025282	10.069068	48.266981
53.270199	10.240901	48.511183
53.516248	10.401692	48.870306
53.763433	10.596134	49.280992
54.011760	10.809629	49.604882
54.261233	11.001817	49.918764
54.511859	11.224874	49.953447
54.763643	11.488118	49.719025
55.016589	11.755948	49.534054
55.270704	11.960845	48.503172
55.525993	12.050003	47.548662
55.782460	11.879411	46.604260
56.040113	11.711371	46.954722
56.298955	11.714293	48.668021
56.558993	11.882320	49.950139
56.820232	12.113468	50.731588
57.082678	12.416346	51.235446
57.346335	12.728132	51.454060
57.611211	13.162221	51.432174
57.877310	13.445833	51.201607
58.144638	13.640499	50.337004
58.413201	13.690106	50.157340
58.683005	13.801678	49.503838
58.954054	13.768860	49.309295
59.226356	13.693550	48.724114
59.499915	13.535455	50.134123
59.774738	13.788224	51.358846
60.050830	14.011785	52.585665
60.328197	14.357579	53.507450
60.606846	14.636177	54.154075
60.886781	15.012803	54.600380
61.168010	15.268013	54.560157
61.450537	15.714360	55.186619
61.734370	16.000143	55.561498
62.019513	16.334833	55.977108
62.305974	16.735005	56.249873
62.593757	17.268406	56.468720
62.882870	17.718512	57.142336
63.173318	18.184360	57.462989
63.465108	18.719245	57.559315
63.758245	19.266987	57.741864
64.052737	19.974756	57.569051
64.348589	20.547809	57.982719
64.645807	21.114685	57.751224
64.944398	21.883889	57.462292
65.244368	22.592673	57.632034
65.545724	23.430046	57.261799
65.848471	24.234129	56.885592
66.152617	24.942882	56.344181
66.458168	25.788441	55.905778
66.765130	26.570350	55.624704
67.073510	27.321143	55.998913
67.383314	28.444914	55.901726
67.694550	29.836723	55.243087
68.007222	31.111351	54.763951
68.321339	32.243676	54.836404
68.636907	33.757186	54.404340
68.953932	35.626980	53.598192
69.272422	38.071006	52.755669
69.592383	40.272167	52.074329
69.913822	42.350248	50.563520
70.236745	45.124430	48.680930
70.561160	48.340872	46.656587
70.887073	51.805460	44.638019
71.214492	54.847444	41.787699
71.543423	58.413271	38.155831
71.873873	63.545213	34.308648
72.205849	67.691108	30.622486
72.539359	70.760361	25.281680
72.874410	74.206574	18.912968
73.211008	77.975752	12.294472
73.549160	80.188781	6.123136
73.888875	79.404111	-0.588359
74.230158	77.435443	-8.000555
74.573018	76.047963	-14.848689
74.917462	73.423620	-20.871344
75.263496	67.672255	-24.939079
75.611129	63.805931	-30.079089
75.960368	60.173350	-33.724208
76.311219	56.934743	-36.449720
76.663691	53.934293	-37.616977
77.017791	51.982814	-39.957148
77.373527	50.036957	-42.972160
77.730906	47.760181	-44.639251
78.089935	45.641167	-47.125093
78.450623	43.560313	-49.821124
78.812977	41.559312	-51.841947
79.177004	39.474685	-53.191709
79.542713	37.255325	-54.771688
79.910111	35.531043	-56.128173
80.279206	33.914222	-56.987680
80.650006	32.241630	-57.579548
81.022518	30.751715	-58.310144
81.396751	29.646440	-58.873919
81.772713	28.534634	-59.174082
82.150411	27.329585	-59.618234
82.529853	26.325640	-60.267992
82.911049	25.410294	-60.525493
83.294005	24.457747	-60.688198
83.678729	23.574993	-61.011000
84.065231	22.769539	-61.074560
84.453518	22.052536	-61.010664
84.843598	21.283501	-60.899525
85.235480	20.638856	-60.885852
85.629173	20.021126	-60.636624
86.024683	19.407833	-60.345174
86.422021	18.873636	-59.904615
86.821193	18.482891	-59.582298
87.222210	18.088675	-59.295954
87.625078	17.727763	-58.895658
88.029808	17.450895	-58.875967
88.436407	17.109067	-58.763482
88.844883	16.768107	-58.830695
89.255247	16.422480	-58.905095
89.667506	16.069937	-58.805903
90.081669	15.716287	-58.732684
90.497745	15.385389	-58.644391
90.915743	15.055392	-58.394911
91.335672	14.733229	-58.189430
91.757540	14.434493	-57.917016
92.181357	14.156630	-57.573199
92.607131	13.878500	-57.219875
93.034872	13.634543	-56.840007
93.464588	13.414574	-56.410802
93.896290	13.203467	-55.996811
94.329985	13.022967	-55.685764
94.765684	12.861908	-55.387159
95.203395	12.672052	-55.158366
95.643128	12.476439	-54.948775
96.084891	12.291044	-54.637382
96.528696	12.109974	-54.345481
96.974550	11.942366	-54.034014
97.422463	11.774747	-53.665187
97.872446	11.627077	-53.305167
98.324506	11.484367	-52.928277
98.778655	11.336285	-52.581148
99.234902	11.211953	-52.285974
99.693255	11.102311	-52.025434
100.153726	11.013255	-51.400811
100.616324	10.846523	-51.384332
101.081058	10.737724	-51.171762
101.547939	10.593591	-50.940512
102.016977	10.475581	-50.631414
102.488180	10.342503	-50.349868
102.961561	10.218351	-49.914171
103.437127	10.129822	-49.545821
103.914891	10.017973	-49.114958
104.394861	9.921839	-48.805351
104.877048	9.836181	-48.418211
105.361462	9.743359	-48.117150
105.848113	9.652416	-47.896771
106.337013	9.566786	-47.528463
106.828170	9.471137	-47.178823
107.321597	9.396493	-46.853672
107.817302	9.307445	-46.475137
108.315297	9.237805	-46.173948
108.815592	9.164173	-45.859597
109.318197	9.082347	-45.554581
109.823125	9.027998	-45.182920
110.330384	8.955119	-44.933835
110.839987	8.888824	-44.671394
111.351943	8.812877	-44.417517
111.866264	8.733955	-44.142237
112.382960	8.659291	-43.798779
112.902043	8.587804	-43.413961
113.423524	8.525111	-43.047368
113.947413	8.463362	-42.690281
114.473722	8.404496	-42.274964
115.002462	8.347810	-41.976682
115.533644	8.292931	-41.595195
116.067280	8.244655	-41.249242
116.603380	8.199258	-40.916564
117.141957	8.149573	-40.619153
117.683021	8.107561	-40.274463
118.226585	8.052336	-40.023137
118.772659	8.012252	-39.730753
119.321255	7.967797	-39.396395
119.872385	7.928610	-39.118192
120.426061	7.872287	-38.927436
120.982294	7.814037	-38.656789
121.541096	7.768866	-38.338487
122.102479	7.711833	-37.938124
122.666456	7.658720	-37.612375
123.233037	7.612945	-37.207352
123.802235	7.567163	-36.784631
124.374062	7.524965	-36.349075
124.948531	7.486726	-35.943272
125.525653	7.457865	-35.454635
126.105440	7.440363	-35.004414
126.687906	7.423990	-34.682386
127.273061	7.399646	-34.353577
127.860920	7.370971	-33.987932
128.451494	7.346909	-33.570890
129.044795	7.336093	-33.091042
129.640837	7.346488	-32.655311
130.239633	7.377695	-32.441726
130.841193	7.393602	-32.512081
131.445533	7.378298	-32.704586
132.052663	7.332545	-32.800833
132.662598	7.272479	-32.717707
133.275350	7.222381	-32.508766
133.890933	7.172542	-32.310715
134.509359	7.128032	-32.070476
135.130641	7.084444	-31.776399
135.754792	7.042423	-31.440991
136.381827	7.006539	-31.146807
137.011758	6.973230	-30.813684
137.644598	6.939527	-30.459398
138.280362	6.906826	-30.093374
138.919062	6.879036	-29.734492
139.560712	6.856444	-29.348521
140.205325	6.836512	-28.980531
140.852916	6.823213	-28.637268
141.503499	6.809485	-28.344403
142.157086	6.795239	-28.043674
142.813692	6.777908	-27.812605
143.473331	6.760094	-27.553995
144.136016	6.729869	-27.304396
144.801763	6.705883	-26.925113
145.470584	6.689930	-26.574448
146.142495	6.676243	-26.215934
146.817509	6.666706	-25.850574
147.495641	6.670037	-25.488475
148.176905	6.678957	-25.191632
148.861316	6.688933	-25.152877
149.548888	6.677740	-25.118507
150.239636	6.654937	-25.020242
150.933574	6.629181	-24.929736
151.630718	6.597554	-24.748628
152.331082	6.568102	-24.493853
153.034680	6.541837	-24.229211
153.741528	6.520879	-23.935620
154.451642	6.496799	-23.656764
155.165035	6.478953	-23.400028
155.881723	6.459363	-23.087602
156.601721	6.440872	-22.814992
157.325045	6.426483	-22.509566
158.051710	6.410654	-22.200650
158.781732	6.394076	-21.932351
159.515125	6.380267	-21.624232
160.251905	6.362202	-21.309462
160.992089	6.349233	-20.958561
161.735692	6.342971	-20.572722
162.482729	6.338899	-20.207217
163.233217	6.342142	-19.920155
163.987171	6.346293	-19.682734
164.744607	6.347946	-19.492982
165.505542	6.347096	-19.329188
166.269992	6.338689	-19.164629
167.037973	6.328180	-19.072947
167.809500	6.317860	-18.934815
168.584592	6.290325	-18.712858
169.363263	6.268526	-18.494965
170.145531	6.254774	-18.216123
170.931412	6.236689	-17.923503
171.720924	6.228093	-17.595352
172.514081	6.214933	-17.290684
173.310903	6.206395	-17.018388
174.111404	6.197596	-16.651845
174.915603	6.194029	-16.357132
175.723517	6.193021	-16.095599
176.535162	6.188705	-15.805312
177.350556	6.187644	-15.506635
178.169717	6.189982	-15.223382
178.992661	6.193750	-14.951679
179.819406	6.204089	-14.747834
180.649969	6.211194	-14.590500
181.484369	6.215263	-14.548566
182.322623	6.204144	-14.506871
183.164749	6.181546	-14.426653
184.010764	6.162554	-14.186922
184.860687	6.147342	-13.929399
185.714536	6.135989	-13.693058
186.572328	6.122055	-13.399273
187.434083	6.112061	-13.115830
188.299818	6.105902	-12.811593
189.169551	6.097072	-12.513538
190.043302	6.096114	-12.193376
190.921089	6.097066	-11.883727
191.802930	6.103895	-11.625589
192.688844	6.110671	-11.423653
193.578850	6.110880	-11.305092
194.472967	6.098992	-11.150158
195.371213	6.087453	-10.928934
196.273609	6.080484	-10.635053
197.180172	6.075216	-10.335356
198.090923	6.075865	-10.065556
199.005881	6.075710	-9.796232
199.925065	6.078188	-9.559777
200.848494	6.074540	-9.311959
201.776188	6.075144	-9.042657
202.708167	6.078058	-8.727597
203.644451	6.089561	-8.480238
204.585060	6.101617	-8.290666
205.530013	6.108386	-8.167297
206.479331	6.108587	-8.055894
207.433034	6.097932	-7.886566
208.391141	6.094149	-7.639010
209.353674	6.093868	-7.371372
210.320653	6.103621	-7.118663
211.292098	6.114728	-6.968588
212.268030	6.122227	-6.932609
213.248470	6.109127	-6.900350
214.233438	6.087894	-6.726624
215.222956	6.070322	-6.434361
216.217044	6.068737	-6.075801
217.215724	6.069745	-5.761547
218.219017	6.077942	-5.489073
219.226944	6.081023	-5.271809
220.239526	6.087753	-5.042440
221.256785	6.090101	-4.813566
222.278743	6.096822	-4.617564
223.305421	6.097007	-4.420528
224.336841	6.099214	-4.213304
225.373025	6.099995	-3.972214
226.413996	6.110061	-3.733525
227.459774	6.124748	-3.576819
228.510383	6.133390	-3.531348
229.565844	6.125218	-3.513459
230.626180	6.106724	-3.401119
231.691414	6.086505	-3.178223
232.761568	6.070082	-2.879408
233.836665	6.056694	-2.571030
234.916728	6.047564	-2.178951
236.001779	6.044484	-1.796925
237.091842	6.040281	-1.384607
238.186940	6.046174	-0.974698
239.287096	6.053308	-0.581470
240.392334	6.058223	-0.242187
241.502676	6.056619	0.152750
242.618147	6.060795	0.635017
243.738771	6.067807	1.147876
244.864570	6.080555	1.704823
245.995569	6.098253	2.301487
247.131792	6.123021	3.005163
248.273264	6.168975	3.747744
249.420007	6.229510	4.487209
250.572047	6.309737	5.252832
251.729409	6.414300	6.044608
252.892116	6.580238	6.888502
254.060193	6.852215	7.280553
255.233666	7.187824	6.251193
256.412559	7.454383	3.619896
257.596897	7.451959	0.105308
258.786705	7.220053	-2.263450
259.982009	6.924763	-3.057170
261.182834	6.718808	-2.443743
262.389205	6.641442	-1.505406
263.601149	6.645764	-0.935758
264.818690	6.672407	-1.008753
266.041855	6.622392	-1.512403
267.270669	6.514527	-1.405323
268.505159	6.445261	-0.811548
269.745352	6.430246	-0.242505
270.991272	6.393832	0.125285
272.242947	6.362401	0.959676
273.500404	6.395725	1.860982
274.763668	6.473913	2.345960
276.032768	6.544028	2.164263
277.307729	6.525580	1.920393
278.588579	6.508610	2.354094
279.875346	6.551442	2.862834
281.168055	6.607028	3.024555
282.466736	6.674956	2.958778
283.771415	6.711694	2.556551
285.082120	6.716532	2.249449
286.398879	6.716843	2.096427
287.721720	6.726821	1.915417
289.050672	6.723499	1.469785
290.385761	6.677756	1.233624
291.727017	6.636628	1.221592
293.074468	6.611914	1.286344
294.428143	6.584452	1.304840
295.788070	6.545316	1.295003
297.154279	6.491316	1.473552
298.526798	6.463699	1.924146
299.905656	6.456071	2.208722
301.290883	6.437673	2.464845
302.682509	6.418146	2.853692
304.080562	6.415372	3.293507
305.485072	6.425471	3.724149
306.896070	6.448819	4.040293
308.313585	6.469702	4.239829
309.737648	6.482193	4.333280
311.168288	6.485440	4.551515
312.605536	6.500677	4.797495
314.049422	6.527482	4.911135
315.499978	6.536311	4.916990
316.957233	6.542157	5.049204
318.421220	6.557447	5.099955
319.891968	6.556944	5.091572
321.369509	6.551270	5.183908
322.853876	6.554073	5.287075
324.345098	6.556031	5.344804
325.843208	6.549179	5.392563
327.348237	6.536422	5.484303
328.860218	6.525419	5.572241
330.379183	6.499390	5.667344
331.905164	6.463883	6.022919
333.438193	6.453850	6.565007
334.978303	6.465517	7.005789
336.525526	6.474626	7.394219
338.079896	6.489281	7.842068
339.641445	6.525440	8.257473
341.210207	6.561610	8.481467
342.786215	6.575797	8.687524
344.369502	6.608821	9.211505
345.960103	6.689281	9.516066
347.558050	6.761389	9.373799
349.163377	6.798279	9.152735
350.776120	6.828489	8.892312
352.396312	6.828844	8.703960
354.023987	6.831155	8.741835
355.659180	6.852882	8.692157
357.301926	6.867306	8.456159
358.952259	6.826914	8.266303
360.610215	6.784109	8.584115
362.275830	6.788353	9.119531
363.949137	6.828928	9.510038
365.630173	6.883912	9.786067
367.318974	6.960646	9.675860
369.015575	6.978477	9.437937
370.720012	7.019171	9.444669
372.432322	7.071745	9.104999
374.152541	7.087485	8.550834
375.880706	7.082889	8.070366
377.616852	7.025147	7.449485
379.361018	6.926869	7.569511
381.113240	6.899224	7.999346
382.873555	6.889875	8.244716
384.642000	6.883491	8.596874
386.418614	6.914025	8.908632
388.203434	6.961530	8.970820
389.996498	7.002856	8.634788
391.797844	6.994997	8.103700
393.607509	6.937967	7.823745
395.425534	6.879966	7.879818
397.251956	6.837808	8.126889
399.086814	6.818090	8.469433
400.930146	6.826377	8.738992
402.781993	6.833079	8.670388
404.642394	6.799156	8.632798
406.511387	6.758351	8.840989
408.389013	6.738908	9.220246
410.275311	6.737211	9.458364
412.170322	6.724670	9.637871
414.074086	6.710751	9.882887
415.986643	6.697071	10.121419
417.908034	6.678196	10.416850
419.838300	6.663891	10.817433
421.777481	6.662810	11.236461
423.725619	6.669872	11.615291
425.682756	6.678200	11.948708
427.648932	6.680921	12.290202
429.624189	6.688146	12.690775
431.608571	6.702776	13.087650
433.602117	6.723754	13.499715
435.604872	6.751393	13.842321
437.616877	6.782613	14.159050
439.638176	6.808677	14.379274
441.668810	6.824233	14.622639
443.708824	6.840876	15.003758
445.758260	6.870920	15.424975
447.817163	6.909438	15.816935
449.885575	6.951058	16.223309
451.963541	7.001965	16.695643
454.051105	7.079412	17.188117
456.148311	7.180014	17.512484
458.255203	7.290016	17.758985
460.371828	7.429875	17.860452
462.498228	7.593762	17.707866
464.634451	7.798943	17.053952
466.780540	7.979323	15.489374
468.936541	8.024440	13.232907
471.102501	7.873208	11.388005
473.278466	7.692891	10.475419
475.464481	7.524939	10.295088
477.660592	7.391525	10.315341
479.866848	7.286335	10.586627
482.083294	7.182689	10.885079
484.309977	7.097399	11.640835
486.546945	7.085409	12.397870
488.794245	7.059120	12.803397
491.051925	7.037546	13.529821
493.320034	7.051806	14.332811
495.598618	7.130494	14.935072
497.887727	7.210812	14.859179
500.187409	7.206456	14.317327
502.497713	7.092865	14.601167
504.818688	7.075677	15.634007
507.150383	7.115684	16.453894
509.492848	7.169294	17.105272
511.846133	7.237938	17.774993
514.210287	7.338709	18.380287
516.585361	7.467382	18.765499
518.971405	7.603071	18.948175
521.368470	7.763735	18.983724
523.776606	7.954567	18.718035
526.195866	8.162318	17.984115
528.626300	8.394481	16.478116
531.067959	8.445264	13.887040
533.520897	8.352457	11.949304
535.985164	8.174007	10.294556
538.460813	7.921669	9.408817
540.947897	7.700763	9.387166
543.446469	7.539840	9.734950
545.956581	7.416726	10.329363
548.478287	7.339456	10.988813
551.011641	7.301248	11.672590
553.556695	7.293738	12.214626
556.113506	7.286321	12.432103
558.682125	7.271048	12.698169
561.262609	7.232569	12.865447
563.855012	7.211371	13.331598
566.459388	7.195100	13.693407
569.075795	7.186373	14.187133
571.704285	7.206042	14.601830
574.344917	7.230606	14.821409
576.997745	7.225992	14.965413
579.662827	7.233478	15.413341
582.340218	7.269073	15.606742
585.029975	7.285495	15.681319
587.732157	7.292878	15.734571
590.446819	7.291915	15.937328
593.174020	7.319546	16.122602
595.913818	7.344494	16.064583
598.666270	7.331417	16.010928
601.431436	7.314577	16.208471
604.209373	7.315376	16.407187
607.000142	7.328452	16.605607
609.803801	7.347450	16.685900
612.620409	7.348076	16.720634
615.450027	7.346447	16.839644
618.292715	7.350455	16.933107
621.148533	7.354090	16.979935
624.017541	7.341700	17.119216
626.899801	7.340370	17.332364
629.795374	7.348318	17.485224
632.704321	7.357727	17.600952
635.626704	7.357039	17.657195
638.562586	7.348539	17.797979
641.512027	7.344358	17.985698
644.475092	7.344945	18.249948
647.451843	7.366855	18.418805
650.442343	7.364497	18.455842
653.446656	7.352012	18.687222
656.464846	7.362524	19.009996
659.496976	7.389998	19.241360
662.543111	7.405843	19.246521
665.603316	7.411178	19.376294
668.677656	7.405180	19.561948
671.766195	7.423156	19.808674
674.869000	7.445931	19.984259
677.986137	7.467824	20.032652
681.117671	7.472829	20.105143
684.263670	7.478784	20.276153
687.424199	7.497219	20.413788
690.599327	7.511942	20.475821
693.789120	7.524307	20.553473
696.993646	7.525479	20.589617
700.212974	7.520197	20.761814
703.447171	7.524567	20.905158
706.696307	7.537838	21.178553
709.960450	7.561840	21.264755
713.239670	7.570568	21.365667
716.534036	7.577411	21.529256
719.843618	7.597112	21.694400
723.168487	7.619672	21.780440
726.508713	7.626530	21.897141
729.864367	7.658369	21.868172
733.235521	7.646737	21.893163
736.622245	7.644258	22.083887
740.024612	7.663174	22.247376
743.442695	7.672013	22.321000
746.876565	7.671404	22.459825
750.326296	7.691235	22.654194
753.791960	7.705553	22.700441
757.273632	7.704636	22.837951
760.771386	7.720921	23.033996
764.285295	7.740609	23.109896
767.815434	7.765662	23.263661
771.361879	7.764744	23.143027
774.924704	7.759277	23.414617
778.503986	7.782070	23.491754
782.099800	7.765179	23.575754
785.712222	7.773355	23.930793
789.341330	7.813283	24.133580
792.987200	7.828961	24.151767
796.649910	7.827911	24.221753
800.329538	7.829859	24.513552
804.026162	7.868120	24.775674
807.739859	7.896434	24.775566
811.470710	7.906241	24.906292
815.218793	7.918893	25.046460
818.984188	7.942456	25.227287
822.766975	7.980751	25.372199
826.567234	7.997515	25.399199
830.385046	8.041228	25.474040
834.220492	8.058933	25.352070
838.073654	8.050960	25.450946
841.944613	8.086522	25.465399
845.833451	8.077837	25.411493
849.740251	8.065136	25.568351
853.665097	8.081107	25.833549
857.608070	8.097998	25.864248
861.569256	8.087730	26.022181
865.548738	8.117001	26.279055
869.546601	8.125260	26.381908
873.562930	8.149276	26.654984
877.597809	8.195486	26.847014
881.651325	8.226690	26.804058
885.723564	8.237420	26.863648
889.814612	8.258050	27.005407
893.924556	8.290652	27.089285
898.053483	8.312776	27.200094
902.201481	8.367636	27.230568
906.368638	8.400965	26.916579
910.555043	8.376767	26.746896
914.760785	8.332138	26.923539
918.985952	8.348809	27.338880
923.230635	8.407595	27.579216
927.494923	8.457472	27.323230
931.778908	8.428308	27.122550
936.082679	8.415736	27.342440
940.406330	8.412588	27.564334
944.749951	8.447753	27.791856
949.113634	8.467564	27.844248
953.497473	8.493249	27.987980
957.901560	8.533890	27.990167
962.325989	8.533902	27.685475
966.770854	8.475885	27.703515
971.236250	8.461549	28.136999
975.722270	8.477460	28.443925
980.229011	8.495176	28.718605
984.756568	8.527076	28.965443
989.305037	8.545848	29.106529
993.874515	8.571980	29.373382
998.465098	8.603232	29.523811
1003.076885	8.626586	29.723672
1007.709974	8.663894	29.953913
1012.364462	8.709641	30.139198
1017.040448	8.769443	30.207493
1021.738033	8.790101	30.045485
1026.457315	8.789546	30.262105
1031.198394	8.826309	30.509853
1035.961373	8.875362	30.716049
1040.746350	8.935428	30.799392
1045.553429	8.989854	30.738832
1050.382712	9.011912	30.701448
1055.234300	9.044723	30.799414
1060.108297	9.079671	30.879470
1065.004806	9.127185	30.981923
1069.923932	9.178500	31.024005
1074.865779	9.233871	31.029160
1079.830451	9.288457	31.015933
1084.818055	9.354048	30.960741
1089.828696	9.430846	30.753267
1094.862480	9.484764	30.294206
1099.919515	9.477923	29.959984
1104.999907	9.474807	29.796069
1110.103765	9.491422	29.737051
1115.231198	9.513543	29.508993
1120.382313	9.509324	29.284598
1125.557221	9.508880	29.132935
1130.756031	9.497997	28.996179
1135.978853	9.496544	28.955833
1141.225799	9.500379	28.771411
1146.496980	9.474637	28.764891
1151.792509	9.450003	28.739394
1157.112496	9.438354	28.761297
1162.457056	9.428434	28.916030
1167.826302	9.448855	28.978438
1173.220347	9.435944	28.943857
1178.639307	9.426693	28.934248
1184.083297	9.413905	29.097526
1189.552432	9.423592	29.349612
1195.046827	9.467481	29.380194
1200.566601	9.502363	29.202507
1206.111870	9.479468	28.953427
1211.682752	9.429747	28.819219
1217.279365	9.355554	29.139227
1222.901829	9.352936	29.649178
1228.550261	9.415595	30.083134
1234.224783	9.492804	29.776225
1239.925515	9.419160	29.577557
1245.652578	9.387599	29.972448
1251.406094	9.407666	30.264182
1257.186184	9.449888	30.427826
1262.992972	9.456991	30.583970
1268.826581	9.480599	30.769529
1274.687134	9.531767	30.707179
1280.574757	9.511431	30.463286
1286.489574	9.450128	30.639308
1292.431710	9.454361	31.108554
1298.401293	9.475650	31.463695
1304.398448	9.515922	31.719429
1310.423304	9.565058	31.877398
1316.475987	9.589295	32.039646
1322.556628	9.630800	32.226339
1328.665353	9.686982	32.467071
1334.802295	9.798023	32.612615
1340.967582	9.966213	31.943312
1347.161346	9.840140	30.923705
1353.383718	9.787439	30.927945
1359.634830	9.669776	30.903427
1365.914816	9.606237	31.532415
1372.223808	9.627784	32.150386
1378.561940	9.668869	32.477673
1384.929348	9.701595	32.777841
1391.326166	9.760755	33.084774
1397.752529	9.847134	33.085230
1404.208576	9.870240	32.828242
1410.694442	9.863112	32.986453
1417.210266	9.922486	32.931090
1423.756185	9.888147	32.827924
1430.332339	9.904941	33.186895
1436.938868	9.953634	33.127376
1443.575911	9.930722	33.066674
1450.243610	9.932075	33.262328
1456.942107	9.940063	33.463743
1463.671542	9.959624	33.638403
1470.432061	9.978665	33.752234
1477.223805	10.005325	33.956787
1484.046919	10.025667	34.061449
1490.901549	10.057325	34.218549
1497.787839	10.078930	34.370662
1504.705937	10.126878	34.522901
1511.655988	10.171165	34.539763
1518.638140	10.197087	34.486136
1525.652542	10.204663	34.544390
1532.699343	10.243689	34.594798
1539.778692	10.238881	34.587832
1546.890740	10.255189	34.761695
1554.035638	10.270603	34.832100
1561.213537	10.284807	34.989317
1568.424589	10.300671	35.186591
1575.668949	10.337521	35.381009
1582.946769	10.374239	35.515439
1590.258205	10.425432	35.714759
1597.603412	10.489087	35.796805
1604.982545	10.553492	35.736176
1612.395761	10.584106	35.582248
1619.843218	10.620694	35.496875
1627.325074	10.627081	35.334104
1634.841488	10.626021	35.351311
1642.392619	10.634312	35.479667
1649.978628	10.666952	35.411025
1657.599676	10.651822	35.414896
1665.255924	10.664792	35.622954
1672.947536	10.700199	35.694090
1680.674674	10.711624	35.649878
1688.437503	10.716132	35.679863
1696.236188	10.737205	35.795982
1704.070893	10.768598	35.867977
1711.941786	10.780125	35.840718
1719.849034	10.755184	35.915888
1727.792805	10.785499	36.125760
1735.773267	10.792416	36.209678
1743.790589	10.816429	36.451502
1751.844943	10.872804	36.559165
1759.936498	10.904535	36.613815
1768.065428	10.940625	36.516593
1776.231904	10.953741	36.499992
1784.436100	10.949264	36.515407
1792.678190	10.958424	36.584945
1800.958350	10.941581	36.636000
1809.276754	10.932403	36.951245
1817.633580	10.985672	37.237970
1826.029005	11.022682	37.329742
1834.463208	11.059459	37.432588
1842.936367	11.087830	37.482843
1851.448663	11.109045	37.569829
1860.000276	11.131585	37.655862
1868.591388	11.158111	37.803230
1877.222181	11.188649	37.849368
1885.892839	11.206375	37.947772
1894.603545	11.228064	38.062433
1903.354485	11.255337	38.197080
1912.145844	11.293182	38.302564
1920.977810	11.309887	38.398391
1929.850570	11.339256	38.598978
1938.764311	11.392979	38.742747
1947.719225	11.432795	38.779127
1956.715499	11.467274	38.849413
1965.753327	11.486924	38.874964
1974.832899	11.509785	38.962923
1983.954408	11.545909	39.007345
1993.118049	11.569733	39.166752
2002.324015	11.598503	39.308436
2011.572503	11.633866	39.375729
2020.863708	11.672161	39.498641
2030.197828	11.703169	39.632699
2039.575062	11.759220	39.748690
2048.995607	11.815578	39.806758
2058.459665	11.855278	39.749971
2067.967436	11.871127	39.796555
2077.519123	11.900197	39.860823
2087.114927	11.934711	39.915061
2096.755054	11.957771	40.036282
2106.439707	11.990630	40.180494
2116.169092	12.041063	40.289864
2125.943416	12.089674	40.304327
2135.762886	12.117018	40.313300
2145.627711	12.150079	40.408729
2155.538101	12.187535	40.491888
2165.494266	12.205138	40.569072
2175.496416	12.242691	40.755076
2185.544766	12.304232	40.854832
2195.639528	12.332740	40.813832
2205.780916	12.367944	41.062873
2215.969146	12.430551	41.122589
2226.204434	12.479459	41.238550
2236.486997	12.529686	41.296309
2246.817055	12.582116	41.464784
2257.194826	12.635973	41.535243
2267.620530	12.687965	41.548726
2278.094390	12.745334	41.666656
2288.616626	12.817816	41.783713
2299.187464	12.871832	41.831146
2309.807128	12.957883	41.899113
2320.475842	13.013944	41.967234
2331.193833	13.107289	42.006732
2341.961330	13.169831	42.075077
2352.778560	13.274668	42.110485
2363.645754	13.386725	42.068518
2374.563142	13.507155	41.918295
2385.530957	13.608598	41.601280
2396.549430	13.643970	41.473708
2407.618796	13.747800	41.214187
2418.739290	13.797222	41.143966
2429.911149	13.940094	40.836586
2441.134608	14.026503	40.351752
2452.409908	14.075346	39.735904
2463.737287	14.043774	39.195668
2475.116985	14.011372	39.059260
2486.549245	14.043704	38.588072
2498.034309	13.993309	38.484073
2509.572422	13.908537	37.938913
2521.163827	13.846612	38.795339
2532.808772	14.077001	38.472713
2544.507503	14.133908	37.559109
2556.260269	13.998295	36.822229
2568.067320	13.821083	36.811116
2579.928906	13.784732	36.518739
2591.845280	13.638309	36.249607
2603.816693	13.340381	36.752649
2615.843401	13.418452	37.908801
2627.925659	13.480176	37.882520
2640.063723	13.544285	38.155251
2652.257852	13.475032	37.567433
2664.508304	13.365526	38.117121
2676.815339	13.354362	38.625746
2689.179219	13.387606	39.055767
2701.600206	13.428623	39.524189
2714.078564	13.544305	39.686927
2726.614558	13.586070	39.625128
2739.208454	13.593628	39.870999
2751.860520	13.652906	40.062910
2764.571024	13.752220	40.141411
2777.340237	13.790350	40.051241
2790.168429	13.823799	39.997409
2803.055872	13.864055	40.048085
2816.002842	13.903348	40.067537
2829.009611	13.909029	40.055375
2842.076458	13.931067	40.078902
2855.203658	13.977232	40.220931
2868.391492	14.012339	40.132029
2881.640238	14.029035	40.206395
2894.950179	14.058329	40.276582
2908.321597	14.139343	40.368081
2921.754775	14.192132	40.012410
2935.250000	14.196484	39.944301
2948.807558	14.179928	39.708118
2962.427736	14.115862	39.588001
2976.110824	14.072535	39.914927
2989.857113	14.125369	40.010701
3003.666894	14.104381	39.815760
3017.540461	14.016080	40.059041
3031.478108	14.035430	40.477507
3045.480131	14.086020	40.761650
3059.546828	14.158467	40.895881
3073.678498	14.150512	40.992415
3087.875439	14.174192	40.926181
3102.137955	14.194587	41.153661
3116.466348	14.212664	41.263255
3130.860921	14.228672	41.404169
3145.321981	14.267906	41.541619
3159.849836	14.279587	41.669829
3174.444792	14.310332	41.851150
3189.107161	14.329804	41.961256
3203.837254	14.361974	42.171925
3218.635383	14.404035	42.348314
3233.501862	14.448491	42.463598
3248.437008	14.477316	42.601599
3263.441138	14.531512	42.776076
3278.514570	14.581657	42.855296
3293.657625	14.618067	42.987868
3308.870623	14.674680	43.136970
3324.153888	14.732553	43.240372
3339.507745	14.790396	43.339767
3354.932519	14.840027	43.486603
3370.428538	14.893333	43.541317
3385.996132	14.959055	43.555899
3401.635630	15.008110	43.661581
3417.347366	15.056914	43.683263
3433.131671	15.118570	43.793560
3448.988883	15.188955	43.795371
3464.919337	15.236063	43.873897
3480.923372	15.319362	43.841761
3497.001328	15.367973	43.762749
3513.153545	15.436283	43.741510
3529.380368	15.475236	43.563525
3545.682141	15.493347	43.465179
3562.059209	15.491365	43.392432
3578.511921	15.516587	43.451264
3595.040626	15.526371	43.378482
3611.645675	15.523980	43.364990
3628.327421	15.527873	43.427962
3645.086218	15.515817	43.624047
3661.922421	15.527328	43.807807
3678.836389	15.578141	44.009472
3695.828481	15.634860	44.059436
3712.899056	15.674273	44.127162
3730.048479	15.684340	44.241231
3747.277113	15.729570	44.393956
3764.585323	15.777991	44.488778
3781.973479	15.818176	44.581893
3799.441947	15.863631	44.682804
3816.991101	15.911071	44.804340
3834.621312	15.957628	44.890646
3852.332955	16.011962	44.984177
3870.126405	16.061315	45.041557
3888.002042	16.114973	45.046753
3905.960244	16.175288	45.119404
3924.001392	16.224973	45.218632
3942.125870	16.260565	45.247763
3960.334063	16.325255	45.296742
3978.626358	16.361778	45.372922
3997.003142	16.430178	45.404093
4015.464806	16.464782	45.434973
4034.011743	16.523080	45.532934
4052.644346	16.586862	45.551631
4071.363010	16.639041	45.568556
4090.168133	16.698160	45.523091
4109.060115	16.730290	45.551055
4128.039357	16.787892	45.599834
4147.106261	16.834069	45.563334
4166.261234	16.871931	45.623518
4185.504680	16.900096	45.617526
4204.837010	16.945144	45.567106
4224.258633	16.970846	45.615802
4243.769963	16.983298	45.661181
4263.371413	17.030592	45.775389
4283.063399	17.068084	45.772458
4302.846341	17.094043	45.860117
4322.720657	17.134620	45.965479
4342.686770	17.183405	46.023611
4362.745105	17.212457	46.075287
4382.896086	17.264987	46.187060
4403.140142	17.313423	46.283491
4423.477704	17.370404	46.366494
4443.909201	17.420580	46.476537
4464.435070	17.456442	46.537484
4485.055744	17.520890	46.579213
4505.771664	17.584018	46.697743
4526.583267	17.629888	46.704149
4547.490997	17.697479	46.834007
4568.495297	17.764033	46.815984
4589.596613	17.806612	46.867888
4610.795393	17.866553	46.955512
4632.092088	17.935346	47.002804
4653.487150	18.007937	47.051859
4674.981033	18.069456	47.035932
4696.574194	18.116054	47.058704
4718.267091	18.176095	47.031141
4740.060184	18.247897	47.000685
4761.953937	18.296491	47.060380
4783.948815	18.339002	47.023936
4806.045284	18.408776	47.063563
4828.243815	18.456040	47.001268
4850.544877	18.493295	47.031683
4872.948945	18.548466	47.051529
4895.456495	18.596487	47.054534
4918.068005	18.646779	47.044502
4940.783954	18.692461	47.039827
4963.604826	18.726253	47.063912
4986.531104	18.763375	47.151737
5009.563276	18.790426	47.198638
5032.701831	18.855482	47.205035
5055.947260	18.911184	47.273913
5079.300056	18.950928	47.262716
5102.760717	19.002269	47.324201
5126.329739	19.062565	47.344788
5150.007623	19.098879	47.354715
5173.794873	19.149148	47.422281
5197.691993	19.198856	47.457578
5221.699491	19.255173	47.492337
5245.817877	19.313348	47.471602
5270.047663	19.372832	47.494047
5294.389363	19.426399	47.572820
5318.843494	19.465137	47.590992
5343.410576	19.545227	47.592605
5368.091130	19.571927	47.588031
5392.885681	19.630115	47.650289
5417.794754	19.685100	47.638915
5442.818880	19.733792	47.639797
5467.958589	19.775993	47.654875
5493.214415	19.831387	47.671259
5518.586895	19.882439	47.668899
5544.076567	19.939535	47.739315
5569.683972	19.974346	47.782465
5595.409655	20.015382	47.734392
5621.254162	20.072458	47.821319
5647.218042	20.106814	47.778215
5673.301845	20.144882	47.873327
5699.506126	20.200551	47.922999
5725.831442	20.254294	47.936046
5752.278351	20.298423	47.968553
5778.847415	20.345799	48.028617
5805.539198	20.386197	48.103839
5832.354268	20.416507	48.135174
5859.293192	20.480265	48.146458
5886.356545	20.529367	48.285778
5913.544899	20.593633	48.300221
5940.858834	20.653294	48.353904
5968.298928	20.714346	48.379665
5995.865764	20.768561	48.398998
6023.559928	20.819439	48.432477
6051.382008	20.877525	48.492821
6079.332595	20.924572	48.575785
6107.412283	20.963829	48.615922
6135.621666	21.030607	48.598265
6163.961346	21.090952	48.717896
6192.431923	21.148315	48.689986
6221.034002	21.195179	48.793841
6249.768191	21.268040	48.858361
6278.635099	21.337489	48.879602
6307.635340	21.395995	48.918154
6336.769529	21.454416	48.974924
6366.038286	21.498719	49.010212
6395.442231	21.558574	48.992211
6424.981990	21.643264	49.065275
6454.658189	21.679530	49.076353
6484.471459	21.758549	49.154424
6514.422432	21.825099	49.138947
6544.511746	21.875538	49.156355
6574.740038	21.933176	49.190108
6605.107951	22.002762	49.220431
6635.616130	22.073370	49.293863
6666.265222	22.120858	49.361534
6697.055879	22.173860	49.329876
6727.988754	22.250562	49.432466
6759.064504	22.312010	49.398129
6790.283789	22.358768	49.456064
6821.647272	22.425788	49.529039
6853.155619	22.493135	49.559189
6884.809499	22.551470	49.576892
6916.609585	22.619765	49.566400
6948.556551	22.706469	49.613222
6980.651077	22.749132	49.676343
7012.893843	22.838896	49.675799
7045.285534	22.880273	49.691485
7077.826839	22.942291	49.762969
7110.518448	23.015603	49.804846
7143.361055	23.080370	49.831639
7176.355359	23.142285	49.833234
7209.502059	23.219450	49.823027
7242.801859	23.298055	49.915065
7276.255467	23.348050	49.878957
7309.863594	23.418285	49.967966
7343.626952	23.501670	49.973696
7377.546259	23.565494	49.969443
7411.622235	23.634842	50.001830
7445.855603	23.702579	50.046408
7480.247092	23.749130	50.084577
7514.797430	23.819581	50.044496
7549.507352	23.891881	50.146420
7584.377595	23.965168	50.101716
7619.408900	24.013356	50.141743
7654.602009	24.079683	50.185445
7689.957672	24.146650	50.200631
7725.476638	24.219421	50.194161
7761.159661	24.312988	50.243108
7797.007500	24.353270	50.309736
7833.020916	24.445315	50.287885
7869.200673	24.486159	50.322036
7905.547540	24.559417	50.383257
7942.062289	24.639880	50.416959
7978.745694	24.702024	50.431613
8015.598536	24.770340	50.408269
8052.621597	24.871496	50.419024
8089.815663	24.911509	50.490101
8127.181523	25.018245	50.478555
8164.719972	25.065793	50.462998
8202.431806	25.125828	50.495254
8240.317827	25.198089	50.513325
8278.378838	25.284017	50.526489
8316.615649	25.361455	50.606507
8355.029070	25.397552	50.593092
8393.619919	25.497178	50.665042
8432.389014	25.569766	50.625390
8471.337178	25.621309	50.642866
8510.465239	25.698028	50.658325
8549.774028	25.781525	50.706025
8589.264380	25.849894	50.800999
8628.937132	25.902884	50.757502
8668.793128	25.993351	50.845120
8708.833214	26.082799	50.822866
8749.058240	26.147487	50.819476
8789.469061	26.223563	50.849540
8830.066534	26.309812	50.908852
8870.851522	26.355879	50.968563
8911.824891	26.448622	50.909422
8952.987511	26.496933	50.985935
8994.340255	26.596718	51.031708
9035.884003	26.684582	51.043057
9077.619637	26.750582	51.082136
9119.548042	26.805602	51.079872
9161.670109	26.907890	51.036509
9203.986733	26.969787	51.140334
9246.498812	27.077797	51.133125
9289.207249	27.151427	51.109070
9332.112952	27.226399	51.122980
9375.216830	27.312022	51.186805
9418.519800	27.362940	51.236785
9462.022781	27.458131	51.179342
9505.726697	27.512028	51.256688
9549.632476	27.615052	51.307542
9593.741050	27.704831	51.315111
9638.053356	27.778020	51.308950
9682.570335	27.839755	51.250895
9727.292933	27.956502	51.297512
9772.222099	27.998968	51.260977
9817.358787	28.077517	51.338724
9862.703956	28.157458	51.355632
9908.258569	28.222476	51.348280
9954.023593	28.314008	51.303499
10000.000000	28.413879	51.407533